# xPDFsuite Configuration #
[PDF]
wavelength = 0.1
dataformat = Qnm
inputfile = Ni.chi
backgroundfile = Kapton-bkg.chi
mode = xray
bgscale = 0.0848180823037
composition = Ni
outputtype = sq
qmaxinst = 31.5
qmin = 0.1
qmax = 27.0
rmax = 80.0
rmin = 0.0
rstep = 0.01
rpoly = 0.9

[Misc]
inputdir = C:/Users/maak/OneDrive - Syddansk Universitet/PhD/Materialer/IrO2_Shuang/PDF-data/December2019/chi
savedir = C:/Users/maak/OneDrive - Syddansk Universitet/PhD/Materialer/IrO2_Shuang/PDF-data/December2019
backgroundfilefull = C:/Users/maak/OneDrive - Syddansk Universitet/PhD/Materialer/IrO2_Shuang/PDF-data/December2019/chi/Kapton-bkg.chi

#### start data
#S 1
#L Q($\AA^{-1}$)  S(a.u.)
0.11362 1.28518
0.1311 1.27832
0.148579 1.27154
0.166059 1.26482
0.183539 1.25818
0.201019 1.2516
0.218499 1.2451
0.235979 1.23866
0.253459 1.23229
0.270939 1.22599
0.288419 1.21976
0.305899 1.21359
0.323379 1.20749
0.340859 1.20146
0.358339 1.19549
0.375819 1.18958
0.393299 1.18374
0.410779 1.17796
0.428259 1.17225
0.445738 1.16659
0.463218 1.161
0.480698 1.15547
0.498178 1.15013
0.515658 1.14472
0.533138 1.13938
0.550618 1.13406
0.568098 1.1288
0.585578 1.12369
0.603058 1.11877
0.620538 1.11392
0.638018 1.10906
0.655498 1.10416
0.672978 1.09935
0.690458 1.09455
0.707938 1.08985
0.725418 1.08519
0.742897 1.08052
0.760377 1.07596
0.777857 1.07141
0.795337 1.06695
0.812817 1.06252
0.830297 1.05814
0.847777 1.05384
0.865257 1.04955
0.882737 1.04536
0.900217 1.04117
0.917697 1.03706
0.935177 1.03301
0.952657 1.02896
0.970137 1.025
0.987617 1.02105
1.0051 1.01719
1.02258 1.01339
1.04006 1.00959
1.05754 1.00585
1.07502 1.00213
1.0925 0.99849
1.10998 0.9949
1.12746 0.991321
1.14494 0.987806
1.16242 0.984298
1.1799 0.980861
1.19738 0.977477
1.21486 0.974126
1.23234 0.970818
1.24982 0.967507
1.2673 0.964266
1.28478 0.961025
1.30226 0.957819
1.31974 0.954686
1.33722 0.951565
1.3547 0.948519
1.37218 0.945485
1.38966 0.942537
1.40714 0.93967
1.42462 0.936812
1.4421 0.934027
1.45957 0.931216
1.47705 0.92846
1.49453 0.925746
1.51201 0.923075
1.52949 0.920484
1.54697 0.917913
1.56445 0.915405
1.58193 0.912913
1.59941 0.910456
1.61689 0.908014
1.63437 0.905586
1.65185 0.903232
1.66933 0.900855
1.68681 0.898518
1.70429 0.896245
1.72177 0.893986
1.73925 0.891802
1.75673 0.889624
1.77421 0.887479
1.79169 0.885369
1.80917 0.883267
1.82665 0.881188
1.84413 0.879124
1.86161 0.87714
1.87909 0.875166
1.89657 0.873221
1.91405 0.871342
1.93153 0.869479
1.94901 0.86769
1.96649 0.865961
1.98397 0.864256
2.00145 0.862558
2.01893 0.860808
2.03641 0.859074
2.05389 0.85731
2.07137 0.855563
2.08885 0.853844
2.10633 0.852132
2.12381 0.850471
2.14129 0.848862
2.15877 0.84738
2.17625 0.845965
2.19373 0.844568
2.21121 0.843264
2.22869 0.841944
2.24617 0.840684
2.26365 0.83948
2.28113 0.838319
2.29861 0.837244
2.31609 0.836154
2.33357 0.835093
2.35105 0.83401
2.36853 0.832878
2.38601 0.831762
2.40349 0.830643
2.42097 0.829566
2.43845 0.828519
2.45593 0.827525
2.47341 0.826639
2.49089 0.825768
2.50837 0.82497
2.52585 0.824201
2.54333 0.823476
2.56081 0.822794
2.57829 0.822136
2.59577 0.821559
2.61325 0.820967
2.63073 0.820471
2.64821 0.820055
2.66569 0.819642
2.68317 0.819337
2.70065 0.818971
2.71813 0.818659
2.73561 0.818338
2.75309 0.81799
2.77057 0.817827
2.78805 0.817661
2.80553 0.817632
2.82301 0.817762
2.84049 0.818
2.85797 0.818668
2.87545 0.819659
2.89293 0.821447
2.91041 0.824622
2.92789 0.830036
2.94537 0.84165
2.96285 0.864103
2.98033 0.914152
2.99781 1.03002
3.01529 1.27005
3.03277 1.77051
3.05025 2.47264
3.06773 3.2192
3.08521 3.64443
3.10269 3.63259
3.12017 3.20903
3.13765 2.6006
3.15513 1.94493
3.17261 1.46148
3.19009 1.1459
3.20757 0.972257
3.22505 0.889033
3.24253 0.848462
3.26001 0.830292
3.27749 0.820941
3.29497 0.815705
3.31245 0.812685
3.32993 0.810727
3.34741 0.809573
3.36489 0.809092
3.38237 0.809533
3.39985 0.811226
3.41733 0.815722
3.43481 0.825419
3.45229 0.846897
3.46977 0.898999
3.48725 1.00726
3.50473 1.24042
3.52221 1.59535
3.53969 2.00391
3.55717 2.30389
3.57465 2.36613
3.59213 2.18953
3.60961 1.8712
3.62709 1.50996
3.64457 1.21557
3.66205 1.01893
3.67953 0.901609
3.69701 0.843942
3.71449 0.815412
3.73197 0.802329
3.74945 0.795696
3.76693 0.791931
3.78441 0.78968
3.80189 0.788062
3.81937 0.786902
3.83685 0.785941
3.85433 0.78513
3.87181 0.784369
3.88929 0.783642
3.90677 0.783022
3.92425 0.782396
3.94173 0.781878
3.95921 0.78144
3.97669 0.781045
3.99417 0.780797
4.01165 0.78052
4.02913 0.780274
4.04661 0.780037
4.06409 0.77973
4.08157 0.779444
4.09905 0.779131
4.11653 0.778864
4.13401 0.778647
4.15149 0.778437
4.16897 0.778342
4.18645 0.77823
4.20393 0.778124
4.22141 0.778044
4.23889 0.77794
4.25637 0.7778
4.27385 0.777642
4.29133 0.777479
4.30881 0.77732
4.32629 0.777168
4.34377 0.777048
4.36125 0.77694
4.37872 0.776861
4.3962 0.776819
4.41368 0.776775
4.43116 0.77679
4.44864 0.776847
4.46612 0.776871
4.4836 0.7769
4.50108 0.776975
4.51856 0.777056
4.53604 0.7772
4.55352 0.777449
4.571 0.777729
4.58848 0.778115
4.60596 0.778558
4.62344 0.779015
4.64092 0.779575
4.6584 0.780102
4.67588 0.780661
4.69336 0.781263
4.71084 0.78185
4.72832 0.782494
4.7458 0.78314
4.76328 0.783888
4.78076 0.784756
4.79824 0.785742
4.81572 0.787042
4.8332 0.788559
4.85068 0.790612
4.86816 0.793757
4.88564 0.798625
4.90312 0.807926
4.9206 0.826607
4.93808 0.865519
4.95556 0.957803
4.97304 1.13534
4.99052 1.45051
5.008 1.85033
5.02548 2.18879
5.04296 2.33271
5.06044 2.22892
5.07792 1.94828
5.0954 1.59746
5.11288 1.28542
5.13036 1.05916
5.14784 0.929147
5.16532 0.859526
5.1828 0.827001
5.20028 0.812151
5.21776 0.80476
5.23524 0.801079
5.25272 0.798959
5.2702 0.797747
5.28768 0.796915
5.30516 0.796421
5.32264 0.796159
5.34012 0.795949
5.3576 0.795899
5.37508 0.795835
5.39256 0.795839
5.41004 0.795947
5.42752 0.796035
5.445 0.796275
5.46248 0.796526
5.47996 0.796847
5.49744 0.797378
5.51492 0.79792
5.5324 0.798565
5.54988 0.799225
5.56736 0.799936
5.58484 0.800817
5.60232 0.801688
5.6198 0.802657
5.63728 0.803774
5.65476 0.80502
5.67224 0.806602
5.68972 0.808384
5.7072 0.810698
5.72468 0.813943
5.74216 0.818673
5.75964 0.827438
5.77712 0.843653
5.7946 0.877846
5.81208 0.956087
5.82956 1.11703
5.84704 1.44557
5.86452 1.93497
5.882 2.48728
5.89948 2.89614
5.91696 2.97263
5.93444 2.71922
5.95192 2.26756
5.9694 1.77961
5.98688 1.37274
6.00436 1.11271
6.02184 0.963227
6.03932 0.893966
6.0568 0.869543
6.07428 0.87652
6.09176 0.918495
6.10924 1.01009
6.12672 1.15767
6.1442 1.3202
6.16168 1.44101
6.17916 1.46155
6.19664 1.38703
6.21412 1.24545
6.2316 1.09999
6.24908 0.975826
6.26656 0.895815
6.28404 0.850789
6.30152 0.827475
6.319 0.816779
6.33648 0.811231
6.35396 0.808126
6.37144 0.806251
6.38892 0.804822
6.4064 0.803833
6.42388 0.803054
6.44136 0.802384
6.45884 0.801837
6.47632 0.801321
6.4938 0.800914
6.51128 0.800586
6.52876 0.800192
6.54624 0.799912
6.56372 0.79966
6.5812 0.799455
6.59868 0.799346
6.61616 0.799124
6.63364 0.798936
6.65112 0.798779
6.6686 0.798613
6.68608 0.798515
6.70356 0.79838
6.72104 0.79827
6.73852 0.79824
6.756 0.798198
6.77348 0.798247
6.79096 0.798373
6.80844 0.7985
6.82592 0.798642
6.8434 0.798796
6.86088 0.79896
6.87836 0.799164
6.89584 0.799369
6.91332 0.799738
6.9308 0.80029
6.94828 0.801123
6.96576 0.802336
6.98324 0.804464
7.00072 0.808794
7.0182 0.817591
7.03568 0.837374
7.05316 0.877457
7.07064 0.944156
7.08812 1.03256
7.1056 1.11045
7.12308 1.14954
7.14056 1.1328
7.15804 1.07384
7.17552 0.993967
7.193 0.921407
7.21048 0.869064
7.22796 0.837296
7.24544 0.821458
7.26292 0.814165
7.2804 0.811112
7.29787 0.810061
7.31535 0.809867
7.33283 0.810056
7.35031 0.810485
7.36779 0.811147
7.38527 0.811872
7.40275 0.812702
7.42023 0.813667
7.43771 0.814651
7.45519 0.815769
7.47267 0.817008
7.49015 0.818294
7.50763 0.819768
7.52511 0.821335
7.54259 0.823207
7.56007 0.825522
7.57755 0.828232
7.59503 0.832118
7.61251 0.838136
7.62999 0.848314
7.64747 0.869164
7.66495 0.914101
7.68243 1.00722
7.69991 1.18967
7.71739 1.45287
7.73487 1.73997
7.75235 1.94459
7.76983 1.97472
7.78731 1.83882
7.80479 1.59361
7.82227 1.34308
7.83975 1.14368
7.85723 1.03794
7.87471 1.0244
7.89219 1.11565
7.90967 1.3079
7.92715 1.56903
7.94463 1.80911
7.96211 1.91855
7.97959 1.86312
7.99707 1.6651
8.01455 1.41917
8.03203 1.18845
8.04951 1.02723
8.06699 0.932022
8.08447 0.882374
8.10195 0.859078
8.11943 0.84783
8.13691 0.842037
8.15439 0.838552
8.17187 0.836355
8.18935 0.834876
8.20683 0.833609
8.22431 0.832768
8.24179 0.832014
8.25927 0.831351
8.27675 0.830956
8.29423 0.830472
8.31171 0.83016
8.32919 0.830059
8.34667 0.829817
8.36415 0.829805
8.38163 0.830052
8.39911 0.830069
8.41659 0.830351
8.43407 0.830915
8.45155 0.831335
8.46903 0.831997
8.48651 0.832719
8.50399 0.833577
8.52147 0.834827
8.53895 0.836355
8.55643 0.838758
8.57391 0.843137
8.59139 0.850892
8.60887 0.867324
8.62635 0.905136
8.64383 0.982884
8.66131 1.12737
8.67879 1.33242
8.69627 1.53973
8.71375 1.6751
8.73123 1.67865
8.74871 1.55866
8.76619 1.36563
8.78367 1.17357
8.80115 1.02497
8.81863 0.932364
8.83611 0.883996
8.85359 0.860928
8.87107 0.850454
8.88855 0.845366
8.90603 0.842783
8.92351 0.841555
8.94099 0.840575
8.95847 0.839905
8.97595 0.839752
8.99343 0.839382
9.01091 0.839389
9.02839 0.83972
9.04587 0.840301
9.06335 0.841493
9.08083 0.843652
9.09831 0.847329
9.11579 0.855107
9.13327 0.871512
9.15075 0.90722
9.16823 0.988159
9.18571 1.13805
9.20319 1.36116
9.22067 1.60786
9.23815 1.78006
9.25563 1.81162
9.27311 1.69332
9.29059 1.48184
9.30807 1.25492
9.32555 1.07309
9.34303 0.957136
9.36051 0.893554
9.37799 0.863036
9.39547 0.848829
9.41295 0.841729
9.43043 0.838058
9.44791 0.835478
9.46539 0.833717
9.48287 0.832563
9.50035 0.831484
9.51783 0.830608
9.53531 0.830098
9.55279 0.829356
9.57027 0.828829
9.58775 0.828588
9.60523 0.828184
9.62271 0.82785
9.64019 0.827762
9.65767 0.827557
9.67515 0.82759
9.69263 0.827844
9.71011 0.827873
9.72759 0.828129
9.74507 0.828422
9.76255 0.828803
9.78003 0.829315
9.79751 0.829856
9.81499 0.830321
9.83247 0.831162
9.84995 0.831974
9.86743 0.83278
9.88491 0.833944
9.90239 0.83546
9.91987 0.837407
9.93735 0.841039
9.95483 0.847664
9.97231 0.861523
9.98979 0.891024
10.0073 0.942901
10.0247 1.01386
10.0422 1.08571
10.0597 1.13016
10.0772 1.12937
10.0947 1.08631
10.1121 1.02064
10.1296 0.955967
10.1471 0.90704
10.1646 0.878232
10.1821 0.863942
10.1995 0.857868
10.217 0.856048
10.2345 0.85585
10.252 0.856646
10.2695 0.857933
10.2869 0.859542
10.3044 0.86145
10.3219 0.863952
10.3394 0.86665
10.3569 0.870388
10.3743 0.876009
10.3918 0.885047
10.4093 0.902642
10.4268 0.941182
10.4443 1.02165
10.4617 1.17826
10.4792 1.41456
10.4967 1.6747
10.5142 1.86904
10.5317 1.92083
10.5491 1.81242
10.5666 1.60562
10.5841 1.39465
10.6016 1.26573
10.6191 1.25479
10.6365 1.34236
10.654 1.45296
10.6715 1.51479
10.689 1.48704
10.7065 1.3765
10.7239 1.22779
10.7414 1.0884
10.7589 0.988964
10.7764 0.930326
10.7939 0.900455
10.8113 0.886181
10.8288 0.8788
10.8463 0.874525
10.8638 0.871945
10.8813 0.869669
10.8987 0.867896
10.9162 0.866668
10.9337 0.865491
10.9512 0.864362
10.9687 0.863716
10.9861 0.862888
11.0036 0.862219
11.0211 0.861529
11.0386 0.861198
11.0561 0.861566
11.0735 0.86213
11.091 0.863048
11.1085 0.865155
11.126 0.869831
11.1435 0.880244
11.1609 0.903487
11.1784 0.952117
11.1959 1.03479
11.2134 1.13881
11.2309 1.23345
11.2483 1.28112
11.2658 1.26185
11.2833 1.1869
11.3008 1.08699
11.3183 0.995906
11.3357 0.930921
11.3532 0.89424
11.3707 0.876323
11.3882 0.868216
11.4057 0.864577
11.4231 0.863414
11.4406 0.862754
11.4581 0.862661
11.4756 0.86331
11.4931 0.864226
11.5105 0.865895
11.528 0.870415
11.5455 0.876256
11.563 0.887726
11.5805 0.916646
11.5979 0.972494
11.6154 1.05763
11.6329 1.15517
11.6504 1.23085
11.6679 1.25478
11.6853 1.22285
11.7028 1.15826
11.7203 1.10119
11.7378 1.0881
11.7553 1.12802
11.7727 1.19171
11.7902 1.23581
11.8077 1.23134
11.8252 1.17606
11.8427 1.09039
11.8601 1.00376
11.8776 0.938579
11.8951 0.89912
11.9126 0.878845
11.9301 0.869257
11.9475 0.864677
11.965 0.862037
11.9825 0.860502
12 0.859691
12.0175 0.858749
12.0349 0.85803
12.0524 0.857647
12.0699 0.857402
12.0874 0.857065
12.1049 0.85692
12.1223 0.857047
12.1398 0.857071
12.1573 0.857387
12.1748 0.858237
12.1923 0.85949
12.2097 0.861765
12.2272 0.866928
12.2447 0.877919
12.2622 0.897079
12.2797 0.923909
12.2971 0.950618
12.3146 0.966887
12.3321 0.966705
12.3496 0.950746
12.3671 0.926549
12.3845 0.902839
12.402 0.885389
12.4195 0.876371
12.437 0.872276
12.4545 0.871347
12.4719 0.871765
12.4894 0.873111
12.5069 0.874859
12.5244 0.876834
12.5419 0.880093
12.5593 0.885013
12.5768 0.893474
12.5943 0.911172
12.6118 0.949113
12.6293 1.02333
12.6467 1.14492
12.6642 1.29361
12.6817 1.42058
12.6992 1.47582
12.7167 1.4441
12.7341 1.34935
12.7516 1.24367
12.7691 1.17838
12.7866 1.1677
12.8041 1.18502
12.8215 1.19198
12.839 1.16592
12.8565 1.10904
12.874 1.03885
12.8915 0.977086
12.9089 0.934853
12.9264 0.911989
12.9439 0.900632
12.9614 0.895521
12.9789 0.892925
12.9963 0.891753
13.0138 0.891169
13.0313 0.890871
13.0488 0.891373
13.0663 0.892027
13.0837 0.892503
13.1012 0.893354
13.1187 0.8947
13.1362 0.89638
13.1537 0.898974
13.1711 0.903388
13.1886 0.912365
13.2061 0.930605
13.2236 0.970445
13.2411 1.04805
13.2585 1.16398
13.276 1.28922
13.2935 1.38029
13.311 1.39999
13.3285 1.34179
13.3459 1.23181
13.3634 1.11196
13.3809 1.01799
13.3984 0.9606
13.4159 0.931983
13.4333 0.919311
13.4508 0.91474
13.4683 0.913224
13.4858 0.913525
13.5033 0.915503
13.5207 0.920058
13.5382 0.929636
13.5557 0.952205
13.5732 1.00349
13.5907 1.10438
13.6081 1.25787
13.6256 1.4288
13.6431 1.55365
13.6606 1.58451
13.6781 1.50821
13.6955 1.35928
13.713 1.1938
13.7305 1.06071
13.748 0.977318
13.7655 0.934715
13.7829 0.914664
13.8004 0.905095
13.8179 0.899575
13.8354 0.895867
13.8529 0.893371
13.8703 0.891457
13.8878 0.889698
13.9053 0.887949
13.9228 0.886424
13.9403 0.88539
13.9577 0.884214
13.9752 0.883358
13.9927 0.882718
14.0102 0.882094
14.0277 0.881356
14.0451 0.880595
14.0626 0.880371
14.0801 0.880428
14.0976 0.880955
14.1151 0.881896
14.1325 0.884437
14.15 0.890371
14.1675 0.900559
14.185 0.912364
14.2025 0.922551
14.2199 0.927624
14.2374 0.924978
14.2549 0.915998
14.2724 0.904885
14.2899 0.895322
14.3073 0.889125
14.3248 0.886177
14.3423 0.88517
14.3598 0.885473
14.3773 0.886511
14.3947 0.888139
14.4122 0.890198
14.4297 0.893845
14.4472 0.900776
14.4647 0.914764
14.4821 0.9409
14.4996 0.982321
14.5171 1.03123
14.5346 1.07206
14.5521 1.09365
14.5695 1.09822
14.587 1.10489
14.6045 1.13465
14.622 1.18802
14.6394 1.23975
14.6569 1.25972
14.6744 1.23079
14.6919 1.16
14.7094 1.07266
14.7268 0.99741
14.7443 0.947734
14.7618 0.922132
14.7793 0.910337
14.7968 0.90463
14.8142 0.901798
14.8317 0.900803
14.8492 0.900052
14.8667 0.900092
14.8842 0.90004
14.9016 0.900414
14.9191 0.901389
14.9366 0.903017
14.9541 0.905725
14.9716 0.911124
14.989 0.923405
15.0065 0.949157
15.024 0.994586
15.0415 1.05335
15.059 1.10915
15.0764 1.13931
15.0939 1.13257
15.1114 1.09263
15.1289 1.03614
15.1464 0.983427
15.1638 0.948067
15.1813 0.928956
15.1988 0.921086
15.2163 0.918652
15.2338 0.919052
15.2512 0.921223
15.2687 0.925701
15.2862 0.935691
15.3037 0.956939
15.3212 1.00096
15.3386 1.07434
15.3561 1.16343
15.3736 1.23882
15.3911 1.2723
15.4086 1.2568
15.426 1.20911
15.4435 1.15649
15.461 1.12126
15.4785 1.10233
15.496 1.08663
15.5134 1.06192
15.5309 1.02593
15.5484 0.98807
15.5659 0.957352
15.5834 0.93809
15.6008 0.928591
15.6183 0.923876
15.6358 0.921442
15.6533 0.919849
15.6708 0.918863
15.6882 0.918755
15.7057 0.918571
15.7232 0.918722
15.7407 0.918982
15.7582 0.919413
15.7756 0.92151
15.7931 0.925893
15.8106 0.935231
15.8281 0.953884
15.8456 0.982595
15.863 1.01613
15.8805 1.04155
15.898 1.04829
15.9155 1.03546
15.933 1.00807
15.9504 0.977492
15.9679 0.953541
15.9854 0.939938
16.0029 0.933876
16.0204 0.932524
16.0378 0.933151
16.0553 0.93601
16.0728 0.943054
16.0903 0.957135
16.1078 0.987289
16.1252 1.04547
16.1427 1.13128
16.1602 1.22506
16.1777 1.29319
16.1952 1.31415
16.2126 1.29351
16.2301 1.25654
16.2476 1.22772
16.2651 1.21402
16.2826 1.20119
16.3 1.17062
16.3175 1.11871
16.335 1.05685
16.3525 1.00205
16.37 0.965264
16.3874 0.946212
16.4049 0.936703
16.4224 0.9321
16.4399 0.929255
16.4574 0.92702
16.4748 0.925267
16.4923 0.924571
16.5098 0.924048
16.5273 0.92364
16.5448 0.923781
16.5622 0.925687
16.5797 0.930998
16.5972 0.943595
16.6147 0.965765
16.6322 0.993294
16.6496 1.01649
16.6671 1.02591
16.6846 1.01765
16.7021 0.995386
16.7196 0.968551
16.737 0.945533
16.7545 0.930966
16.772 0.923645
16.7895 0.92092
16.807 0.920192
16.8244 0.921295
16.8419 0.925899
16.8594 0.936466
16.8769 0.95889
16.8944 0.997685
16.9118 1.04735
16.9293 1.08963
16.9468 1.10832
16.9643 1.0957
16.9818 1.05824
16.9992 1.0103
17.0167 0.967737
17.0342 0.94007
17.0517 0.925456
17.0692 0.918764
17.0866 0.916448
17.1041 0.915058
17.1216 0.913991
17.1391 0.913721
17.1566 0.913695
17.174 0.913877
17.1915 0.913881
17.209 0.91412
17.2265 0.914744
17.244 0.915605
17.2614 0.91648
17.2789 0.917993
17.2964 0.920594
17.3139 0.925174
17.3314 0.934614
17.3488 0.951848
17.3663 0.975523
17.3838 0.997996
17.4013 1.01093
17.4188 1.00962
17.4362 0.995079
17.4537 0.974936
17.4712 0.955842
17.4887 0.943516
17.5062 0.938679
17.5236 0.937721
17.5411 0.939632
17.5586 0.943985
17.5761 0.953326
17.5936 0.972905
17.611 1.01175
17.6285 1.07042
17.646 1.13743
17.6635 1.18767
17.681 1.20423
17.6984 1.18856
17.7159 1.1542
17.7334 1.11896
17.7509 1.0916
17.7684 1.06995
17.7858 1.04603
17.8033 1.01791
17.8208 0.990477
17.8383 0.969888
17.8558 0.958175
17.8732 0.952526
17.8907 0.950327
17.9082 0.949609
17.9257 0.949595
17.9432 0.949842
17.9606 0.950854
17.9781 0.952058
17.9956 0.955429
18.0131 0.962097
18.0306 0.976851
18.048 1.00725
18.0655 1.05707
18.083 1.11564
18.1005 1.16034
18.118 1.17397
18.1354 1.1517
18.1529 1.10339
18.1704 1.04815
18.1879 1.00493
18.2054 0.979621
18.2228 0.96808
18.2403 0.964467
18.2578 0.965754
18.2753 0.971561
18.2928 0.986714
18.3102 1.0181
18.3277 1.06749
18.3452 1.12258
18.3627 1.16297
18.3802 1.17472
18.3976 1.16077
18.4151 1.13308
18.4326 1.10377
18.4501 1.07933
18.4676 1.0577
18.485 1.03342
18.5025 1.00696
18.52 0.982338
18.5375 0.964709
18.555 0.954138
18.5724 0.949478
18.5899 0.946282
18.6074 0.944459
18.6249 0.943431
18.6424 0.942573
18.6598 0.941403
18.6773 0.94085
18.6948 0.940275
18.7123 0.939783
18.7298 0.939679
18.7472 0.939874
18.7647 0.939882
18.7822 0.94016
18.7997 0.940333
18.8172 0.940532
18.8346 0.940987
18.8521 0.942088
18.8696 0.943145
18.8871 0.944341
18.9046 0.945756
18.922 0.948076
18.9395 0.952228
18.957 0.959133
18.9745 0.973176
18.992 0.998065
19.0094 1.03139
19.0269 1.06424
19.0444 1.08828
19.0619 1.10452
19.0794 1.12029
19.0968 1.13654
19.1143 1.14626
19.1318 1.14022
19.1493 1.11387
19.1668 1.07117
19.1842 1.0255
19.2017 0.989773
19.2192 0.969127
19.2367 0.959488
19.2542 0.954854
19.2716 0.952483
19.2891 0.951297
19.3066 0.950822
19.3241 0.94996
19.3416 0.950849
19.359 0.954473
19.3765 0.962129
19.394 0.978914
19.4115 1.0041
19.429 1.03057
19.4464 1.04746
19.4639 1.04685
19.4814 1.03048
19.4989 1.00499
19.5164 0.979672
19.5338 0.962118
19.5513 0.953047
19.5688 0.94932
19.5863 0.949161
19.6038 0.952341
19.6212 0.960968
19.6387 0.978749
19.6562 1.00386
19.6737 1.02735
19.6912 1.04043
19.7086 1.03673
19.7261 1.01814
19.7436 0.99337
19.7611 0.970206
19.7786 0.955155
19.796 0.947995
19.8135 0.944259
19.831 0.942427
19.8485 0.941682
19.866 0.941529
19.8834 0.941487
19.9009 0.94165
19.9184 0.9416
19.9359 0.942167
19.9534 0.942872
19.9708 0.943982
19.9883 0.945554
20.0058 0.947057
20.0233 0.950893
20.0408 0.956688
20.0582 0.963802
20.0757 0.969713
20.0932 0.973111
20.1107 0.972348
20.1282 0.96917
20.1456 0.965284
20.1631 0.962737
20.1806 0.962685
20.1981 0.965122
20.2156 0.970306
20.233 0.980668
20.2505 1.00226
20.268 1.04219
20.2855 1.09893
20.303 1.15453
20.3204 1.18813
20.3379 1.19294
20.3554 1.17347
20.3729 1.14232
20.3904 1.11012
20.4078 1.08227
20.4253 1.05569
20.4428 1.02901
20.4603 1.00443
20.4777 0.98757
20.4952 0.978658
20.5127 0.974131
20.5302 0.971965
20.5477 0.971397
20.5651 0.971047
20.5826 0.971187
20.6001 0.972249
20.6176 0.97507
20.6351 0.98247
20.6525 0.99703
20.67 1.01732
20.6875 1.03723
20.705 1.04657
20.7225 1.0425
20.7399 1.0281
20.7574 1.00831
20.7749 0.991294
20.7924 0.981262
20.8099 0.977525
20.8273 0.978246
20.8448 0.982649
20.8623 0.992986
20.8798 1.0145
20.8973 1.04397
20.9147 1.07203
20.9322 1.09129
20.9497 1.0961
20.9672 1.09186
20.9847 1.08175
21.0021 1.06923
21.0196 1.05356
21.0371 1.03395
21.0546 1.01132
21.0721 0.993001
21.0895 0.980052
21.107 0.972884
21.1245 0.969957
21.142 0.966843
21.1595 0.966236
21.1769 0.965322
21.1944 0.966007
21.2119 0.966459
21.2294 0.969273
21.2469 0.975698
21.2643 0.985379
21.2818 0.996037
21.2993 1.00263
21.3168 1.00216
21.3343 0.995364
21.3517 0.985367
21.3692 0.975163
21.3867 0.969033
21.4042 0.966158
21.4217 0.966063
21.4391 0.968622
21.4566 0.975932
21.4741 0.990033
21.4916 1.00979
21.5091 1.02829
21.5265 1.03856
21.544 1.03803
21.5615 1.03053
21.579 1.01827
21.5965 1.00686
21.6139 0.996039
21.6314 0.986901
21.6489 0.977341
21.6664 0.969726
21.6839 0.965353
21.7013 0.962756
21.7188 0.962808
21.7363 0.961728
21.7538 0.962633
21.7713 0.964569
21.7887 0.966493
21.8062 0.971403
21.8237 0.98239
21.8412 1.00094
21.8587 1.02363
21.8761 1.04308
21.8936 1.04857
21.9111 1.03997
21.9286 1.02019
21.9461 0.998435
21.9635 0.982986
21.981 0.974699
21.9985 0.974162
22.016 0.977534
22.0335 0.987289
22.0509 1.00772
22.0684 1.03549
22.0859 1.0619
22.1034 1.07425
22.1209 1.06642
22.1383 1.04289
22.1558 1.01306
22.1733 0.988441
22.1908 0.975372
22.2083 0.96927
22.2257 0.96622
22.2432 0.964275
22.2607 0.962841
22.2782 0.96272
22.2957 0.963074
22.3131 0.962142
22.3306 0.962468
22.3481 0.96268
22.3656 0.962414
22.3831 0.965142
22.4005 0.970248
22.418 0.97562
22.4355 0.982082
22.453 0.98523
22.4705 0.986158
22.4879 0.982069
22.5054 0.976541
22.5229 0.971179
22.5404 0.968331
22.5579 0.968586
22.5753 0.969555
22.5928 0.972357
22.6103 0.977414
22.6278 0.986329
22.6453 0.99744
22.6627 1.00853
22.6802 1.02392
22.6977 1.04348
22.7152 1.06136
22.7327 1.06974
22.7501 1.06271
22.7676 1.04295
22.7851 1.02093
22.8026 1.00106
22.8201 0.986654
22.8375 0.980349
22.855 0.97825
22.8725 0.978964
22.89 0.978971
22.9075 0.979201
22.9249 0.980243
22.9424 0.98588
22.9599 0.995046
22.9774 1.00638
22.9949 1.01634
23.0123 1.02179
23.0298 1.01847
23.0473 1.0086
23.0648 0.99881
23.0823 0.99166
23.0997 0.987614
23.1172 0.988698
23.1347 0.994271
23.1522 1.0084
23.1697 1.02838
23.1871 1.05691
23.2046 1.08116
23.2221 1.0893
23.2396 1.07816
23.2571 1.05758
23.2745 1.03716
23.292 1.02019
23.3095 1.00632
23.327 0.996912
23.3445 0.9915
23.3619 0.986157
23.3794 0.982902
23.3969 0.982915
23.4144 0.981762
23.4319 0.980576
23.4493 0.981975
23.4668 0.982829
23.4843 0.98373
23.5018 0.986795
23.5193 0.993143
23.5367 0.997068
23.5542 0.998246
23.5717 0.997999
23.5892 0.995231
23.6067 0.989189
23.6241 0.988088
23.6416 0.988112
23.6591 0.991123
23.6766 0.998001
23.6941 1.01202
23.7115 1.03459
23.729 1.06068
23.7465 1.08084
23.764 1.08649
23.7815 1.08278
23.7989 1.07335
23.8164 1.05801
23.8339 1.04294
23.8514 1.02643
23.8689 1.00905
23.8863 0.997005
23.9038 0.989868
23.9213 0.984387
23.9388 0.983751
23.9563 0.98162
23.9737 0.980656
23.9912 0.982546
24.0087 0.983729
24.0262 0.986776
24.0437 0.995884
24.0611 1.00328
24.0786 1.00753
24.0961 1.00672
24.1136 0.997704
24.1311 0.989454
24.1485 0.983189
24.166 0.976974
24.1835 0.977967
24.201 0.977797
24.2185 0.981436
24.2359 0.990085
24.2534 0.995147
24.2709 1.00145
24.2884 1.0009
24.3059 0.994317
24.3233 0.987907
24.3408 0.978741
24.3583 0.974701
24.3758 0.973078
24.3933 0.97144
24.4107 0.971614
24.4282 0.969124
24.4457 0.970156
24.4632 0.969172
24.4807 0.96797
24.4981 0.969698
24.5156 0.96829
24.5331 0.971562
24.5506 0.970945
24.5681 0.972385
24.5855 0.97347
24.603 0.974806
24.6205 0.975411
24.638 0.974852
24.6555 0.975198
24.6729 0.974221
24.6904 0.976217
24.7079 0.980378
24.7254 0.986776
24.7429 0.999596
24.7603 1.01497
24.7778 1.03016
24.7953 1.03743
24.8128 1.03927
24.8303 1.03034
24.8477 1.02353
24.8652 1.01321
24.8827 1.00272
24.9002 0.993994
24.9177 0.986218
24.9351 0.982553
24.9526 0.980582
24.9701 0.982051
24.9876 0.981676
25.0051 0.982939
25.0225 0.983178
25.04 0.989363
25.0575 0.997817
25.075 1.01197
25.0925 1.02128
25.1099 1.02509
25.1274 1.01873
25.1449 1.00859
25.1624 0.99601
25.1799 0.991465
25.1973 0.989775
25.2148 0.991787
25.2323 0.99569
25.2498 1.00735
25.2673 1.02051
25.2847 1.03201
25.3022 1.03801
25.3197 1.03701
25.3372 1.02975
25.3547 1.02199
25.3721 1.01326
25.3896 1.00541
25.4071 0.997296
25.4246 0.990989
25.4421 0.988916
25.4595 0.987211
25.477 0.986601
25.4945 0.986043
25.512 0.986278
25.5295 0.987018
25.5469 0.989266
25.5644 0.991945
25.5819 0.994671
25.5994 0.996782
25.6169 0.996879
25.6343 0.996018
25.6518 0.992271
25.6693 0.990579
25.6868 0.991167
25.7043 0.99065
25.7217 0.9948
25.7392 0.999984
25.7567 1.01007
25.7742 1.01985
25.7917 1.02736
25.8091 1.03024
25.8266 1.03365
25.8441 1.03174
25.8616 1.02382
25.8791 1.01528
25.8965 1.0055
25.914 0.998082
25.9315 0.994219
25.949 0.991827
25.9665 0.992067
25.9839 0.991802
26.0014 0.993597
26.0189 0.997094
26.0364 1.00187
26.0539 1.01282
26.0713 1.0224
26.0888 1.02811
26.1063 1.02642
26.1238 1.017
26.1413 1.00642
26.1587 0.998122
26.1762 0.99641
26.1937 0.996902
26.2112 1.00028
26.2287 1.00744
26.2461 1.01652
26.2636 1.02221
26.2811 1.02159
26.2986 1.01526
26.316 1.00442
26.3335 0.995386
26.351 0.991471
26.3685 0.989536
26.386 0.98772
26.4034 0.985916
26.4209 0.986037
26.4384 0.985761
26.4559 0.985163
26.4734 0.986526
26.4908 0.986463
26.5083 0.988156
26.5258 0.992797
26.5433 0.997342
26.5608 1.00217
26.5782 1.00251
26.5957 1.00087
26.6132 0.995373
26.6307 0.992443
26.6482 0.990904
26.6656 0.991875
26.6831 0.99518
26.7006 1.00331
26.7181 1.01656
26.7356 1.02744
26.753 1.03033
26.7705 1.0273
26.788 1.02009
26.8055 1.01204
26.823 1.00239
26.8404 0.996408
26.8579 0.990075
26.8754 0.990338
26.8929 0.986495
26.9104 0.984804
26.9278 0.982947
26.9453 0.983253
26.9628 0.985933
26.9803 0.986158
26.9978 0.987741
